#FORMAT	     : EMSA/MAS Spectral Data File
#VERSION     : 1.0
#TITLE       : BN_(hex)_B_K_Giovanni_Bertoni_100
#DATE        : 
#TIME        : 
#OWNER       : eelsdatabase.net
#NPOINTS     : 1024
#NCOLUMNS    : 1
#XUNITS      : eV
#YUNITS      : 
#DATATYPE    : XY
#XPERCHAN    : 0.5
#OFFSET      : 1.135000e+002
#SIGNALTYPE  : ELS
#SPECTRUM    : Spectral Data Starts Here
1.135000e+002, 2.097769e+007
1.140000e+002, 3.081232e+007
1.145000e+002, 3.029936e+007
1.150000e+002, 2.979800e+007
1.155000e+002, 2.926738e+007
1.160000e+002, 2.873717e+007
1.165000e+002, 2.820908e+007
1.170000e+002, 2.771788e+007
1.175000e+002, 2.722237e+007
1.180000e+002, 2.672891e+007
1.185000e+002, 2.624505e+007
1.190000e+002, 2.579541e+007
1.195000e+002, 2.532140e+007
1.200000e+002, 2.486746e+007
1.205000e+002, 2.441205e+007
1.210000e+002, 2.397691e+007
1.215000e+002, 2.356075e+007
1.220000e+002, 2.315542e+007
1.225000e+002, 2.272762e+007
1.230000e+002, 2.232004e+007
1.235000e+002, 2.192676e+007
1.240000e+002, 2.153122e+007
1.245000e+002, 2.115847e+007
1.250000e+002, 2.076911e+007
1.255000e+002, 2.039168e+007
1.260000e+002, 2.003061e+007
1.265000e+002, 1.966682e+007
1.270000e+002, 1.933276e+007
1.275000e+002, 1.899290e+007
1.280000e+002, 1.865253e+007
1.285000e+002, 1.833611e+007
1.290000e+002, 1.804230e+007
1.295000e+002, 1.771940e+007
1.300000e+002, 1.737992e+007
1.305000e+002, 1.707181e+007
1.310000e+002, 1.679539e+007
1.315000e+002, 1.649653e+007
1.320000e+002, 1.619624e+007
1.325000e+002, 1.588708e+007
1.330000e+002, 1.560658e+007
1.335000e+002, 1.535513e+007
1.340000e+002, 1.511228e+007
1.345000e+002, 1.485139e+007
1.350000e+002, 1.459855e+007
1.355000e+002, 1.435426e+007
1.360000e+002, 1.411646e+007
1.365000e+002, 1.385723e+007
1.370000e+002, 1.361263e+007
1.375000e+002, 1.337577e+007
1.380000e+002, 1.314941e+007
1.385000e+002, 1.293010e+007
1.390000e+002, 1.271350e+007
1.395000e+002, 1.250748e+007
1.400000e+002, 1.228273e+007
1.405000e+002, 1.207696e+007
1.410000e+002, 1.187173e+007
1.415000e+002, 1.167065e+007
1.420000e+002, 1.148156e+007
1.425000e+002, 1.130561e+007
1.430000e+002, 1.113079e+007
1.435000e+002, 1.094734e+007
1.440000e+002, 1.075408e+007
1.445000e+002, 1.057398e+007
1.450000e+002, 1.040280e+007
1.455000e+002, 1.023718e+007
1.460000e+002, 1.007568e+007
1.465000e+002, 9.916154e+006
1.470000e+002, 9.755056e+006
1.475000e+002, 9.594627e+006
1.480000e+002, 9.437995e+006
1.485000e+002, 9.289074e+006
1.490000e+002, 9.145855e+006
1.495000e+002, 8.991677e+006
1.500000e+002, 8.847011e+006
1.505000e+002, 8.719122e+006
1.510000e+002, 8.573111e+006
1.515000e+002, 8.432740e+006
1.520000e+002, 8.308604e+006
1.525000e+002, 8.181963e+006
1.530000e+002, 8.056165e+006
1.535000e+002, 7.926003e+006
1.540000e+002, 7.806524e+006
1.545000e+002, 7.680547e+006
1.550000e+002, 7.568490e+006
1.555000e+002, 7.455023e+006
1.560000e+002, 7.336143e+006
1.565000e+002, 7.223647e+006
1.570000e+002, 7.100545e+006
1.575000e+002, 6.993048e+006
1.580000e+002, 6.890317e+006
1.585000e+002, 6.780820e+006
1.590000e+002, 6.675585e+006
1.595000e+002, 6.573079e+006
1.600000e+002, 6.476306e+006
1.605000e+002, 6.391244e+006
1.610000e+002, 6.299151e+006
1.615000e+002, 6.205367e+006
1.620000e+002, 6.108773e+006
1.625000e+002, 6.014179e+006
1.630000e+002, 5.922419e+006
1.635000e+002, 5.835023e+006
1.640000e+002, 5.751391e+006
1.645000e+002, 5.664797e+006
1.650000e+002, 5.581589e+006
1.655000e+002, 5.498968e+006
1.660000e+002, 5.419944e+006
1.665000e+002, 5.343378e+006
1.670000e+002, 5.261621e+006
1.675000e+002, 5.192751e+006
1.680000e+002, 5.113575e+006
1.685000e+002, 5.035920e+006
1.690000e+002, 4.958671e+006
1.695000e+002, 4.887120e+006
1.700000e+002, 4.820931e+006
1.705000e+002, 4.751448e+006
1.710000e+002, 4.679873e+006
1.715000e+002, 4.613659e+006
1.720000e+002, 4.552777e+006
1.725000e+002, 4.487311e+006
1.730000e+002, 4.432823e+006
1.735000e+002, 4.366460e+006
1.740000e+002, 4.306567e+006
1.745000e+002, 4.247255e+006
1.750000e+002, 4.190922e+006
1.755000e+002, 4.137780e+006
1.760000e+002, 4.074518e+006
1.765000e+002, 4.011721e+006
1.770000e+002, 3.962046e+006
1.775000e+002, 3.904960e+006
1.780000e+002, 3.854345e+006
1.785000e+002, 3.807428e+006
1.790000e+002, 3.754210e+006
1.795000e+002, 3.701489e+006
1.800000e+002, 3.654832e+006
1.805000e+002, 3.611273e+006
1.810000e+002, 3.556649e+006
1.815000e+002, 3.504169e+006
1.820000e+002, 3.458667e+006
1.825000e+002, 3.416970e+006
1.830000e+002, 3.378115e+006
1.835000e+002, 3.333764e+006
1.840000e+002, 3.290326e+006
1.845000e+002, 3.246426e+006
1.850000e+002, 3.206296e+006
1.855000e+002, 3.165713e+006
1.860000e+002, 3.125653e+006
1.865000e+002, 3.090546e+006
1.870000e+002, 3.050884e+006
1.875000e+002, 3.007740e+006
1.880000e+002, 2.968456e+006
1.885000e+002, 2.928082e+006
1.890000e+002, 2.891490e+006
1.895000e+002, 2.854926e+006
1.900000e+002, 2.818888e+006
1.905000e+002, 2.788525e+006
1.910000e+002, 2.772862e+006
1.915000e+002, 2.768110e+006
1.920000e+002, 2.794257e+006
1.925000e+002, 2.860027e+006
1.930000e+002, 2.993086e+006
1.935000e+002, 3.267464e+006
1.940000e+002, 3.861634e+006
1.945000e+002, 4.644564e+006
1.950000e+002, 4.731306e+006
1.955000e+002, 4.023487e+006
1.960000e+002, 3.389342e+006
1.965000e+002, 3.076171e+006
1.970000e+002, 2.937813e+006
1.975000e+002, 2.886642e+006
1.980000e+002, 2.916126e+006
1.985000e+002, 3.044455e+006
1.990000e+002, 3.303285e+006
1.995000e+002, 3.779905e+006
2.000000e+002, 4.610311e+006
2.005000e+002, 5.731770e+006
2.010000e+002, 6.729733e+006
2.015000e+002, 7.292857e+006
2.020000e+002, 7.466297e+006
2.025000e+002, 7.256238e+006
2.030000e+002, 6.724243e+006
2.035000e+002, 6.037167e+006
2.040000e+002, 5.434883e+006
2.045000e+002, 5.036407e+006
2.050000e+002, 4.847462e+006
2.055000e+002, 4.836169e+006
2.060000e+002, 4.947147e+006
2.065000e+002, 5.112544e+006
2.070000e+002, 5.235604e+006
2.075000e+002, 5.257324e+006
2.080000e+002, 5.198869e+006
2.085000e+002, 5.124712e+006
2.090000e+002, 5.065836e+006
2.095000e+002, 5.011587e+006
2.100000e+002, 4.935809e+006
2.105000e+002, 4.846734e+006
2.110000e+002, 4.741810e+006
2.115000e+002, 4.617766e+006
2.120000e+002, 4.500575e+006
2.125000e+002, 4.388919e+006
2.130000e+002, 4.281941e+006
2.135000e+002, 4.195829e+006
2.140000e+002, 4.134426e+006
2.145000e+002, 4.125649e+006
2.150000e+002, 4.177740e+006
2.155000e+002, 4.274395e+006
2.160000e+002, 4.430378e+006
2.165000e+002, 4.637310e+006
2.170000e+002, 4.841355e+006
2.175000e+002, 5.008110e+006
2.180000e+002, 5.095293e+006
2.185000e+002, 5.099300e+006
2.190000e+002, 5.010554e+006
2.195000e+002, 4.854144e+006
2.200000e+002, 4.653773e+006
2.205000e+002, 4.440528e+006
2.210000e+002, 4.241785e+006
2.215000e+002, 4.075209e+006
2.220000e+002, 3.949405e+006
2.225000e+002, 3.857939e+006
2.230000e+002, 3.804769e+006
2.235000e+002, 3.790159e+006
2.240000e+002, 3.794206e+006
2.245000e+002, 3.819068e+006
2.250000e+002, 3.865848e+006
2.255000e+002, 3.914611e+006
2.260000e+002, 3.975330e+006
2.265000e+002, 4.029583e+006
2.270000e+002, 4.065348e+006
2.275000e+002, 4.089453e+006
2.280000e+002, 4.104739e+006
2.285000e+002, 4.107474e+006
2.290000e+002, 4.107262e+006
2.295000e+002, 4.103689e+006
2.300000e+002, 4.096846e+006
2.305000e+002, 4.093718e+006
2.310000e+002, 4.092810e+006
2.315000e+002, 4.088796e+006
2.320000e+002, 4.083623e+006
2.325000e+002, 4.090687e+006
2.330000e+002, 4.096120e+006
2.335000e+002, 4.097729e+006
2.340000e+002, 4.102676e+006
2.345000e+002, 4.094870e+006
2.350000e+002, 4.084154e+006
2.355000e+002, 4.076431e+006
2.360000e+002, 4.055369e+006
2.365000e+002, 4.036405e+006
2.370000e+002, 4.010317e+006
2.375000e+002, 3.983710e+006
2.380000e+002, 3.958421e+006
2.385000e+002, 3.939591e+006
2.390000e+002, 3.918639e+006
2.395000e+002, 3.892732e+006
2.400000e+002, 3.872641e+006
2.405000e+002, 3.852162e+006
2.410000e+002, 3.827606e+006
2.415000e+002, 3.793825e+006
2.420000e+002, 3.764941e+006
2.425000e+002, 3.742465e+006
2.430000e+002, 3.712913e+006
2.435000e+002, 3.679170e+006
2.440000e+002, 3.648576e+006
2.445000e+002, 3.609496e+006
2.450000e+002, 3.568518e+006
2.455000e+002, 3.526488e+006
2.460000e+002, 3.491070e+006
2.465000e+002, 3.448020e+006
2.470000e+002, 3.400847e+006
2.475000e+002, 3.365704e+006
2.480000e+002, 3.331904e+006
2.485000e+002, 3.300503e+006
2.490000e+002, 3.268895e+006
2.495000e+002, 3.240139e+006
2.500000e+002, 3.215611e+006
2.505000e+002, 3.192043e+006
2.510000e+002, 3.171512e+006
2.515000e+002, 3.152246e+006
2.520000e+002, 3.134316e+006
2.525000e+002, 3.123284e+006
2.530000e+002, 3.111175e+006
2.535000e+002, 3.100872e+006
2.540000e+002, 3.087020e+006
2.545000e+002, 3.073964e+006
2.550000e+002, 3.064439e+006
2.555000e+002, 3.050177e+006
2.560000e+002, 3.028916e+006
2.565000e+002, 3.021295e+006
2.570000e+002, 3.006544e+006
2.575000e+002, 2.990628e+006
2.580000e+002, 2.977040e+006
2.585000e+002, 2.961426e+006
2.590000e+002, 2.943602e+006
2.595000e+002, 2.924902e+006
2.600000e+002, 2.910618e+006
2.605000e+002, 2.893261e+006
2.610000e+002, 2.877777e+006
2.615000e+002, 2.865292e+006
2.620000e+002, 2.851792e+006
2.625000e+002, 2.841675e+006
2.630000e+002, 2.830755e+006
2.635000e+002, 2.825261e+006
2.640000e+002, 2.816039e+006
2.645000e+002, 2.800474e+006
2.650000e+002, 2.787993e+006
2.655000e+002, 2.777286e+006
2.660000e+002, 2.765846e+006
2.665000e+002, 2.753472e+006
2.670000e+002, 2.742934e+006
2.675000e+002, 2.731619e+006
2.680000e+002, 2.719812e+006
2.685000e+002, 2.709562e+006
2.690000e+002, 2.693334e+006
2.695000e+002, 2.674370e+006
2.700000e+002, 2.660436e+006
2.705000e+002, 2.644576e+006
2.710000e+002, 2.629066e+006
2.715000e+002, 2.606803e+006
2.720000e+002, 2.592261e+006
2.725000e+002, 2.580979e+006
2.730000e+002, 2.566829e+006
2.735000e+002, 2.546041e+006
2.740000e+002, 2.523700e+006
2.745000e+002, 2.505376e+006
2.750000e+002, 2.487048e+006
2.755000e+002, 2.468637e+006
2.760000e+002, 2.449077e+006
2.765000e+002, 2.428297e+006
2.770000e+002, 2.406147e+006
2.775000e+002, 2.383514e+006
2.780000e+002, 2.364484e+006
2.785000e+002, 2.346018e+006
2.790000e+002, 2.322815e+006
2.795000e+002, 2.302286e+006
2.800000e+002, 2.276985e+006
2.805000e+002, 2.253850e+006
2.810000e+002, 2.239197e+006
2.815000e+002, 2.220962e+006
2.820000e+002, 2.204275e+006
2.825000e+002, 2.185449e+006
2.830000e+002, 2.162308e+006
2.835000e+002, 2.148528e+006
2.840000e+002, 2.131193e+006
2.845000e+002, 2.114159e+006
2.850000e+002, 2.103559e+006
2.855000e+002, 2.093317e+006
2.860000e+002, 2.086114e+006
2.865000e+002, 2.078513e+006
2.870000e+002, 2.066471e+006
2.875000e+002, 2.051541e+006
2.880000e+002, 2.043659e+006
2.885000e+002, 2.036154e+006
2.890000e+002, 2.023840e+006
2.895000e+002, 2.013073e+006
2.900000e+002, 2.002471e+006
2.905000e+002, 1.995614e+006
2.910000e+002, 1.986193e+006
2.915000e+002, 1.971929e+006
2.920000e+002, 1.964405e+006
2.925000e+002, 1.952296e+006
2.930000e+002, 1.943921e+006
2.935000e+002, 1.930916e+006
2.940000e+002, 1.917360e+006
2.945000e+002, 1.907048e+006
2.950000e+002, 1.899411e+006
2.955000e+002, 1.886262e+006
2.960000e+002, 1.871781e+006
2.965000e+002, 1.865833e+006
2.970000e+002, 1.852430e+006
2.975000e+002, 1.837547e+006
2.980000e+002, 1.824522e+006
2.985000e+002, 1.813964e+006
2.990000e+002, 1.802176e+006
2.995000e+002, 1.792462e+006
3.000000e+002, 1.782649e+006
3.005000e+002, 1.766853e+006
3.010000e+002, 1.751653e+006
3.015000e+002, 1.739980e+006
3.020000e+002, 1.728835e+006
3.025000e+002, 1.716700e+006
3.030000e+002, 1.703863e+006
3.035000e+002, 1.686334e+006
3.040000e+002, 1.674656e+006
3.045000e+002, 1.663906e+006
3.050000e+002, 1.650355e+006
3.055000e+002, 1.638427e+006
3.060000e+002, 1.626339e+006
3.065000e+002, 1.616933e+006
3.070000e+002, 1.609027e+006
3.075000e+002, 1.598406e+006
3.080000e+002, 1.589158e+006
3.085000e+002, 1.574266e+006
3.090000e+002, 1.557808e+006
3.095000e+002, 1.550792e+006
3.100000e+002, 1.545663e+006
3.105000e+002, 1.537081e+006
3.110000e+002, 1.530041e+006
3.115000e+002, 1.518588e+006
3.120000e+002, 1.508485e+006
3.125000e+002, 1.493735e+006
3.130000e+002, 1.480992e+006
3.135000e+002, 1.476519e+006
3.140000e+002, 1.467512e+006
3.145000e+002, 1.452690e+006
3.150000e+002, 1.442942e+006
3.155000e+002, 1.432062e+006
3.160000e+002, 1.421619e+006
3.165000e+002, 1.408522e+006
3.170000e+002, 1.401337e+006
3.175000e+002, 1.396800e+006
3.180000e+002, 1.384714e+006
3.185000e+002, 1.374278e+006
3.190000e+002, 1.365326e+006
3.195000e+002, 1.354920e+006
3.200000e+002, 1.345328e+006
3.205000e+002, 1.338757e+006
3.210000e+002, 1.334428e+006
3.215000e+002, 1.324068e+006
3.220000e+002, 1.308870e+006
3.225000e+002, 1.296844e+006
3.230000e+002, 1.287688e+006
3.235000e+002, 1.279918e+006
3.240000e+002, 1.273813e+006
3.245000e+002, 1.263723e+006
3.250000e+002, 1.252563e+006
3.255000e+002, 1.244585e+006
3.260000e+002, 1.232103e+006
3.265000e+002, 1.219971e+006
3.270000e+002, 1.210509e+006
3.275000e+002, 1.205093e+006
3.280000e+002, 1.200202e+006
3.285000e+002, 1.190336e+006
3.290000e+002, 1.182295e+006
3.295000e+002, 1.170646e+006
3.300000e+002, 1.160078e+006
3.305000e+002, 1.153730e+006
3.310000e+002, 1.145457e+006
3.315000e+002, 1.135352e+006
3.320000e+002, 1.131477e+006
3.325000e+002, 1.125777e+006
3.330000e+002, 1.116419e+006
3.335000e+002, 1.108239e+006
3.340000e+002, 1.097496e+006
3.345000e+002, 1.087968e+006
3.350000e+002, 1.084373e+006
3.355000e+002, 1.077530e+006
3.360000e+002, 1.074469e+006
3.365000e+002, 1.066556e+006
3.370000e+002, 1.058747e+006
3.375000e+002, 1.053561e+006
3.380000e+002, 1.044713e+006
3.385000e+002, 1.040933e+006
3.390000e+002, 1.036493e+006
3.395000e+002, 1.026125e+006
3.400000e+002, 1.015748e+006
3.405000e+002, 1.010060e+006
3.410000e+002, 1.005122e+006
3.415000e+002, 1.001112e+006
3.420000e+002, 9.946100e+005
3.425000e+002, 9.869780e+005
3.430000e+002, 9.769630e+005
3.435000e+002, 9.700240e+005
3.440000e+002, 9.670380e+005
3.445000e+002, 9.611430e+005
3.450000e+002, 9.538930e+005
3.455000e+002, 9.438270e+005
3.460000e+002, 9.360850e+005
3.465000e+002, 9.334100e+005
3.470000e+002, 9.281390e+005
3.475000e+002, 9.196870e+005
3.480000e+002, 9.154630e+005
3.485000e+002, 9.074590e+005
3.490000e+002, 8.980580e+005
3.495000e+002, 8.981130e+005
3.500000e+002, 8.915670e+005
3.505000e+002, 8.825970e+005
3.510000e+002, 8.785440e+005
3.515000e+002, 8.710510e+005
3.520000e+002, 8.635450e+005
3.525000e+002, 8.557580e+005
3.530000e+002, 8.518160e+005
3.535000e+002, 8.460250e+005
3.540000e+002, 8.391500e+005
3.545000e+002, 8.350320e+005
3.550000e+002, 8.292840e+005
3.555000e+002, 8.290560e+005
3.560000e+002, 8.204800e+005
3.565000e+002, 8.134210e+005
3.570000e+002, 8.115670e+005
3.575000e+002, 8.049250e+005
3.580000e+002, 7.975380e+005
3.585000e+002, 7.931470e+005
3.590000e+002, 7.901610e+005
3.595000e+002, 7.877660e+005
3.600000e+002, 7.774940e+005
3.605000e+002, 7.712580e+005
3.610000e+002, 7.655870e+005
3.615000e+002, 7.629250e+005
3.620000e+002, 7.610400e+005
3.625000e+002, 7.546380e+005
3.630000e+002, 7.478050e+005
3.635000e+002, 7.417570e+005
3.640000e+002, 7.367500e+005
3.645000e+002, 7.354310e+005
3.650000e+002, 7.320140e+005
3.655000e+002, 7.246270e+005
3.660000e+002, 7.196290e+005
3.665000e+002, 7.141880e+005
3.670000e+002, 7.074660e+005
3.675000e+002, 7.041760e+005
3.680000e+002, 7.025530e+005
3.685000e+002, 6.995160e+005
3.690000e+002, 6.932880e+005
3.695000e+002, 6.883760e+005
3.700000e+002, 6.854990e+005
3.705000e+002, 6.846970e+005
3.710000e+002, 6.835790e+005
3.715000e+002, 6.763020e+005
3.720000e+002, 6.691520e+005
3.725000e+002, 6.664140e+005
3.730000e+002, 6.617220e+005
3.735000e+002, 6.596950e+005
3.740000e+002, 6.569760e+005
3.745000e+002, 6.522770e+005
3.750000e+002, 6.485260e+005
3.755000e+002, 6.475500e+005
3.760000e+002, 6.447440e+005
3.765000e+002, 6.387310e+005
3.770000e+002, 6.338460e+005
3.775000e+002, 6.298240e+005
3.780000e+002, 6.260120e+005
3.785000e+002, 6.222760e+005
3.790000e+002, 6.192160e+005
3.795000e+002, 6.133600e+005
3.800000e+002, 6.082270e+005
3.805000e+002, 6.087790e+005
3.810000e+002, 6.074790e+005
3.815000e+002, 6.011440e+005
3.820000e+002, 5.964720e+005
3.825000e+002, 5.933790e+005
3.830000e+002, 5.894090e+005
3.835000e+002, 5.880030e+005
3.840000e+002, 5.837260e+005
3.845000e+002, 5.794150e+005
3.850000e+002, 5.773720e+005
3.855000e+002, 5.752550e+005
3.860000e+002, 5.702450e+005
3.865000e+002, 5.656590e+005
3.870000e+002, 5.597660e+005
3.875000e+002, 5.563010e+005
3.880000e+002, 5.565280e+005
3.885000e+002, 5.537930e+005
3.890000e+002, 5.507460e+005
3.895000e+002, 5.477410e+005
3.900000e+002, 5.433400e+005
3.905000e+002, 5.388200e+005
3.910000e+002, 5.336230e+005
3.915000e+002, 5.328550e+005
3.920000e+002, 5.317350e+005
3.925000e+002, 5.282400e+005
3.930000e+002, 5.270780e+005
3.935000e+002, 5.242270e+005
3.940000e+002, 5.205840e+005
3.945000e+002, 5.180350e+005
3.950000e+002, 5.131980e+005
3.955000e+002, 5.133150e+005
3.960000e+002, 5.122540e+005
3.965000e+002, 5.091210e+005
3.970000e+002, 5.067970e+005
3.975000e+002, 5.030170e+005
3.980000e+002, 5.003730e+005
3.985000e+002, 4.981560e+005
3.990000e+002, 4.968560e+005
3.995000e+002, 4.974200e+005
4.000000e+002, 4.957960e+005
4.005000e+002, 4.974950e+005
4.010000e+002, 5.043350e+005
4.015000e+002, 5.164250e+005
4.020000e+002, 5.452440e+005
4.025000e+002, 5.937470e+005
4.030000e+002, 6.511530e+005
4.035000e+002, 6.928450e+005
4.040000e+002, 7.046400e+005
4.045000e+002, 6.990460e+005
4.050000e+002, 6.917000e+005
4.055000e+002, 6.893420e+005
4.060000e+002, 6.893850e+005
4.065000e+002, 6.976040e+005
4.070000e+002, 7.259870e+005
4.075000e+002, 7.783350e+005
4.080000e+002, 8.422790e+005
4.085000e+002, 9.111980e+005
4.090000e+002, 9.888360e+005
4.095000e+002, 1.072918e+006
4.100000e+002, 1.142745e+006
4.105000e+002, 1.177901e+006
4.110000e+002, 1.173242e+006
4.115000e+002, 1.136461e+006
4.120000e+002, 1.083454e+006
4.125000e+002, 1.028120e+006
4.130000e+002, 9.852810e+005
4.135000e+002, 9.614670e+005
4.140000e+002, 9.571030e+005
4.145000e+002, 9.652340e+005
4.150000e+002, 9.817420e+005
4.155000e+002, 1.005680e+006
4.160000e+002, 1.029646e+006
4.165000e+002, 1.058004e+006
4.170000e+002, 1.078799e+006
4.175000e+002, 1.093468e+006
4.180000e+002, 1.094391e+006
4.185000e+002, 1.086067e+006
4.190000e+002, 1.063160e+006
4.195000e+002, 1.024875e+006
4.200000e+002, 9.836400e+005
4.205000e+002, 9.411840e+005
4.210000e+002, 8.982640e+005
4.215000e+002, 8.587960e+005
4.220000e+002, 8.225380e+005
4.225000e+002, 7.899160e+005
4.230000e+002, 7.605950e+005
4.235000e+002, 7.411770e+005
4.240000e+002, 7.292780e+005
4.245000e+002, 7.265730e+005
4.250000e+002, 7.306630e+005
4.255000e+002, 7.335960e+005
4.260000e+002, 7.389430e+005
4.265000e+002, 7.483850e+005
4.270000e+002, 7.559430e+005
4.275000e+002, 7.621360e+005
4.280000e+002, 7.669420e+005
4.285000e+002, 7.698350e+005
4.290000e+002, 7.761190e+005
4.295000e+002, 7.800620e+005
4.300000e+002, 7.786410e+005
4.305000e+002, 7.778040e+005
4.310000e+002, 7.792420e+005
4.315000e+002, 7.814660e+005
4.320000e+002, 7.888960e+005
4.325000e+002, 7.968160e+005
4.330000e+002, 8.055600e+005
4.335000e+002, 8.170710e+005
4.340000e+002, 8.259980e+005
4.345000e+002, 8.385090e+005
4.350000e+002, 8.501500e+005
4.355000e+002, 8.650350e+005
4.360000e+002, 8.766450e+005
4.365000e+002, 8.897580e+005
4.370000e+002, 8.955540e+005
4.375000e+002, 9.028730e+005
4.380000e+002, 9.133890e+005
4.385000e+002, 9.246820e+005
4.390000e+002, 9.329710e+005
4.395000e+002, 9.382790e+005
4.400000e+002, 9.437820e+005
4.405000e+002, 9.473640e+005
4.410000e+002, 9.502410e+005
4.415000e+002, 9.531660e+005
4.420000e+002, 9.540370e+005
4.425000e+002, 9.557580e+005
4.430000e+002, 9.538510e+005
4.435000e+002, 9.498070e+005
4.440000e+002, 9.432150e+005
4.445000e+002, 9.339920e+005
4.450000e+002, 9.239330e+005
4.455000e+002, 9.174430e+005
4.460000e+002, 9.051510e+005
4.465000e+002, 8.940800e+005
4.470000e+002, 8.833320e+005
4.475000e+002, 8.761950e+005
4.480000e+002, 8.662500e+005
4.485000e+002, 8.502420e+005
4.490000e+002, 8.371580e+005
4.495000e+002, 8.289100e+005
4.500000e+002, 8.198350e+005
4.505000e+002, 8.115020e+005
4.510000e+002, 8.032120e+005
4.515000e+002, 7.982410e+005
4.520000e+002, 7.911780e+005
4.525000e+002, 7.837530e+005
4.530000e+002, 7.766980e+005
4.535000e+002, 7.700840e+005
4.540000e+002, 7.674440e+005
4.545000e+002, 7.651350e+005
4.550000e+002, 7.652780e+005
4.555000e+002, 7.630070e+005
4.560000e+002, 7.586310e+005
4.565000e+002, 7.603900e+005
4.570000e+002, 7.607790e+005
4.575000e+002, 7.588890e+005
4.580000e+002, 7.581590e+005
4.585000e+002, 7.572050e+005
4.590000e+002, 7.577740e+005
4.595000e+002, 7.594490e+005
4.600000e+002, 7.592990e+005
4.605000e+002, 7.610470e+005
4.610000e+002, 7.630870e+005
4.615000e+002, 7.613940e+005
4.620000e+002, 7.590490e+005
4.625000e+002, 7.573510e+005
4.630000e+002, 7.551660e+005
4.635000e+002, 7.524170e+005
4.640000e+002, 7.534430e+005
4.645000e+002, 7.544060e+005
4.650000e+002, 7.499310e+005
4.655000e+002, 7.486520e+005
4.660000e+002, 7.461220e+005
4.665000e+002, 7.400290e+005
4.670000e+002, 7.383800e+005
4.675000e+002, 7.389420e+005
4.680000e+002, 7.372470e+005
4.685000e+002, 7.337640e+005
4.690000e+002, 7.283720e+005
4.695000e+002, 7.244080e+005
4.700000e+002, 7.223920e+005
4.705000e+002, 7.178350e+005
4.710000e+002, 7.161320e+005
4.715000e+002, 7.149860e+005
4.720000e+002, 7.113180e+005
4.725000e+002, 7.070050e+005
4.730000e+002, 7.028950e+005
4.735000e+002, 7.002840e+005
4.740000e+002, 6.993020e+005
4.745000e+002, 6.948980e+005
4.750000e+002, 6.894690e+005
4.755000e+002, 6.873720e+005
4.760000e+002, 6.847200e+005
4.765000e+002, 6.824630e+005
4.770000e+002, 6.786610e+005
4.775000e+002, 6.784220e+005
4.780000e+002, 6.771840e+005
4.785000e+002, 6.743710e+005
4.790000e+002, 6.733600e+005
4.795000e+002, 6.725540e+005
4.800000e+002, 6.700620e+005
4.805000e+002, 6.657030e+005
4.810000e+002, 6.620240e+005
4.815000e+002, 6.611390e+005
4.820000e+002, 6.599750e+005
4.825000e+002, 6.575590e+005
4.830000e+002, 6.555560e+005
4.835000e+002, 6.522070e+005
4.840000e+002, 6.510620e+005
4.845000e+002, 6.494830e+005
4.850000e+002, 6.453620e+005
4.855000e+002, 6.420240e+005
4.860000e+002, 6.376870e+005
4.865000e+002, 6.351970e+005
4.870000e+002, 6.329950e+005
4.875000e+002, 6.327480e+005
4.880000e+002, 6.305970e+005
4.885000e+002, 6.270770e+005
4.890000e+002, 6.238210e+005
4.895000e+002, 6.192920e+005
4.900000e+002, 6.160040e+005
4.905000e+002, 6.130010e+005
4.910000e+002, 6.105340e+005
4.915000e+002, 6.104400e+005
4.920000e+002, 6.070690e+005
4.925000e+002, 6.027490e+005
4.930000e+002, 6.018330e+005
4.935000e+002, 5.983390e+005
4.940000e+002, 5.977500e+005
4.945000e+002, 5.945700e+005
4.950000e+002, 5.917920e+005
4.955000e+002, 5.905650e+005
4.960000e+002, 5.872520e+005
4.965000e+002, 5.855460e+005
4.970000e+002, 5.821520e+005
4.975000e+002, 5.796130e+005
4.980000e+002, 5.765830e+005
4.985000e+002, 5.743000e+005
4.990000e+002, 5.701690e+005
4.995000e+002, 5.666330e+005
5.000000e+002, 5.657080e+005
5.005000e+002, 5.643980e+005
5.010000e+002, 5.631070e+005
5.015000e+002, 5.604230e+005
5.020000e+002, 5.584780e+005
5.025000e+002, 5.560930e+005
5.030000e+002, 5.535640e+005
5.035000e+002, 5.504500e+005
5.040000e+002, 5.487130e+005
5.045000e+002, 5.442680e+005
5.050000e+002, 5.434560e+005
5.055000e+002, 5.444100e+005
5.060000e+002, 5.403410e+005
5.065000e+002, 5.353560e+005
5.070000e+002, 5.334300e+005
5.075000e+002, 5.320100e+005
5.080000e+002, 5.287200e+005
5.085000e+002, 5.269610e+005
5.090000e+002, 5.270110e+005
5.095000e+002, 5.249050e+005
5.100000e+002, 5.239880e+005
5.105000e+002, 5.209600e+005
5.110000e+002, 5.185150e+005
5.115000e+002, 5.168060e+005
5.120000e+002, 5.173560e+005
5.125000e+002, 5.126230e+005
5.130000e+002, 5.085090e+005
5.135000e+002, 5.085590e+005
5.140000e+002, 5.094150e+005
5.145000e+002, 5.094040e+005
5.150000e+002, 5.074620e+005
5.155000e+002, 5.027590e+005
5.160000e+002, 4.987330e+005
5.165000e+002, 4.974280e+005
5.170000e+002, 4.930950e+005
5.175000e+002, 4.929230e+005
5.180000e+002, 4.922150e+005
5.185000e+002, 4.880340e+005
5.190000e+002, 4.853590e+005
5.195000e+002, 4.850720e+005
5.200000e+002, 4.844270e+005
5.205000e+002, 4.824310e+005
5.210000e+002, 4.787180e+005
5.215000e+002, 4.762220e+005
5.220000e+002, 4.745100e+005
5.225000e+002, 4.711190e+005
5.230000e+002, 4.707530e+005
5.235000e+002, 4.673020e+005
5.240000e+002, 4.651770e+005
5.245000e+002, 4.627350e+005
5.250000e+002, 4.583270e+005
5.255000e+002, 4.566450e+005
5.260000e+002, 4.580000e+005
5.265000e+002, 4.553800e+005
5.270000e+002, 4.522420e+005
5.275000e+002, 4.504990e+005
5.280000e+002, 4.487160e+005
5.285000e+002, 4.459440e+005
5.290000e+002, 4.420420e+005
5.295000e+002, 4.367830e+005
5.300000e+002, 4.347230e+005
5.305000e+002, 4.358210e+005
5.310000e+002, 4.366130e+005
5.315000e+002, 4.360760e+005
5.320000e+002, 4.294460e+005
5.325000e+002, 4.261280e+005
5.330000e+002, 4.256740e+005
5.335000e+002, 4.226010e+005
5.340000e+002, 4.194720e+005
5.345000e+002, 4.196030e+005
5.350000e+002, 4.202080e+005
5.355000e+002, 4.185210e+005
5.360000e+002, 4.141400e+005
5.365000e+002, 4.100570e+005
5.370000e+002, 4.072070e+005
5.375000e+002, 4.083180e+005
5.380000e+002, 4.066430e+005
5.385000e+002, 4.062930e+005
5.390000e+002, 4.053170e+005
5.395000e+002, 4.041690e+005
5.400000e+002, 4.004550e+005
5.405000e+002, 3.988810e+005
5.410000e+002, 3.968380e+005
5.415000e+002, 3.970930e+005
5.420000e+002, 3.970480e+005
5.425000e+002, 3.963980e+005
5.430000e+002, 3.937720e+005
5.435000e+002, 3.897710e+005
5.440000e+002, 3.894140e+005
5.445000e+002, 3.884210e+005
5.450000e+002, 3.849670e+005
5.455000e+002, 3.831600e+005
5.460000e+002, 3.829790e+005
5.465000e+002, 3.822700e+005
5.470000e+002, 3.796800e+005
5.475000e+002, 3.744520e+005
5.480000e+002, 3.712270e+005
5.485000e+002, 3.733780e+005
5.490000e+002, 3.731710e+005
5.495000e+002, 3.699530e+005
5.500000e+002, 3.706600e+005
5.505000e+002, 3.712870e+005
5.510000e+002, 3.680870e+005
5.515000e+002, 3.676770e+005
5.520000e+002, 3.656100e+005
5.525000e+002, 3.633510e+005
5.530000e+002, 3.625230e+005
5.535000e+002, 3.603150e+005
5.540000e+002, 3.605090e+005
5.545000e+002, 3.593370e+005
5.550000e+002, 3.550850e+005
5.555000e+002, 3.527580e+005
5.560000e+002, 3.516610e+005
5.565000e+002, 3.504330e+005
5.570000e+002, 3.478990e+005
5.575000e+002, 3.487100e+005
5.580000e+002, 3.465600e+005
5.585000e+002, 3.432290e+005
5.590000e+002, 3.414000e+005
5.595000e+002, 3.401120e+005
5.600000e+002, 3.363660e+005
5.605000e+002, 3.356370e+005
5.610000e+002, 3.361450e+005
5.615000e+002, 3.348350e+005
5.620000e+002, 3.317900e+005
5.625000e+002, 3.280520e+005
5.630000e+002, 3.281150e+005
5.635000e+002, 3.274980e+005
5.640000e+002, 3.277030e+005
5.645000e+002, 3.262980e+005
5.650000e+002, 3.250990e+005
5.655000e+002, 3.228270e+005
5.660000e+002, 3.192560e+005
5.665000e+002, 3.198520e+005
5.670000e+002, 3.207350e+005
5.675000e+002, 3.181870e+005
5.680000e+002, 3.149640e+005
5.685000e+002, 3.152210e+005
5.690000e+002, 3.140040e+005
5.695000e+002, 3.133690e+005
5.700000e+002, 3.132370e+005
5.705000e+002, 3.103010e+005
5.710000e+002, 3.084510e+005
5.715000e+002, 3.094130e+005
5.720000e+002, 3.091410e+005
5.725000e+002, 3.065850e+005
5.730000e+002, 3.035370e+005
5.735000e+002, 3.030630e+005
5.740000e+002, 3.031510e+005
5.745000e+002, 3.001980e+005
5.750000e+002, 2.987570e+005
5.755000e+002, 2.987180e+005
5.760000e+002, 2.963120e+005
5.765000e+002, 2.940360e+005
5.770000e+002, 2.938050e+005
5.775000e+002, 2.906970e+005
5.780000e+002, 2.898420e+005
5.785000e+002, 2.912790e+005
5.790000e+002, 2.920060e+005
5.795000e+002, 2.884600e+005
5.800000e+002, 2.873120e+005
5.805000e+002, 2.862090e+005
5.810000e+002, 2.869550e+005
5.815000e+002, 2.889320e+005
5.820000e+002, 2.886270e+005
5.825000e+002, 2.838290e+005
5.830000e+002, 2.814710e+005
5.835000e+002, 2.782570e+005
5.840000e+002, 2.785260e+005
5.845000e+002, 2.792470e+005
5.850000e+002, 2.779160e+005
5.855000e+002, 2.783120e+005
5.860000e+002, 2.762240e+005
5.865000e+002, 2.747710e+005
5.870000e+002, 2.742940e+005
5.875000e+002, 2.711940e+005
5.880000e+002, 2.725650e+005
5.885000e+002, 2.711800e+005
5.890000e+002, 2.687890e+005
5.895000e+002, 2.667120e+005
5.900000e+002, 2.653870e+005
5.905000e+002, 2.643210e+005
5.910000e+002, 2.659390e+005
5.915000e+002, 2.654430e+005
5.920000e+002, 2.640800e+005
5.925000e+002, 2.623880e+005
5.930000e+002, 2.582680e+005
5.935000e+002, 2.569370e+005
5.940000e+002, 2.579060e+005
5.945000e+002, 2.584110e+005
5.950000e+002, 2.574430e+005
5.955000e+002, 2.551940e+005
5.960000e+002, 2.546570e+005
5.965000e+002, 2.536750e+005
5.970000e+002, 2.533280e+005
5.975000e+002, 2.536520e+005
5.980000e+002, 2.498960e+005
5.985000e+002, 2.492370e+005
5.990000e+002, 2.494380e+005
5.995000e+002, 2.477050e+005
6.000000e+002, 2.455800e+005
6.005000e+002, 2.449880e+005
6.010000e+002, 2.436440e+005
6.015000e+002, 2.411080e+005
6.020000e+002, 2.405010e+005
6.025000e+002, 2.412750e+005
6.030000e+002, 2.423730e+005
6.035000e+002, 2.418230e+005
6.040000e+002, 2.413690e+005
6.045000e+002, 2.418390e+005
6.050000e+002, 2.412910e+005
6.055000e+002, 2.395770e+005
6.060000e+002, 2.354960e+005
6.065000e+002, 2.344620e+005
6.070000e+002, 2.359690e+005
6.075000e+002, 2.351330e+005
6.080000e+002, 2.329870e+005
6.085000e+002, 2.316660e+005
6.090000e+002, 2.303560e+005
6.095000e+002, 2.272880e+005
6.100000e+002, 2.261270e+005
6.105000e+002, 2.277320e+005
6.110000e+002, 2.288840e+005
6.115000e+002, 2.265510e+005
6.120000e+002, 2.249680e+005
6.125000e+002, 2.265760e+005
6.130000e+002, 2.270930e+005
6.135000e+002, 2.229700e+005
6.140000e+002, 2.204670e+005
6.145000e+002, 2.207980e+005
6.150000e+002, 2.215300e+005
6.155000e+002, 2.206070e+005
6.160000e+002, 2.201420e+005
6.165000e+002, 2.202110e+005
6.170000e+002, 2.218130e+005
6.175000e+002, 2.203010e+005
6.180000e+002, 2.182750e+005
6.185000e+002, 2.161600e+005
6.190000e+002, 2.149190e+005
6.195000e+002, 2.159390e+005
6.200000e+002, 2.156320e+005
6.205000e+002, 2.132110e+005
6.210000e+002, 2.106250e+005
6.215000e+002, 2.103700e+005
6.220000e+002, 2.098690e+005
6.225000e+002, 2.106180e+005
6.230000e+002, 2.100130e+005
6.235000e+002, 2.091020e+005
6.240000e+002, 2.084640e+005
6.245000e+002, 2.057200e+005
6.250000e+002, 1.741320e+005
#ENDOFDATA   : End Of Data and File
